 => TITLE: 
 => Data file name: c:\praktik\pulmann\
 => Instrm        :    0
 => Lambda(1&2)   :   1.54050  1.54434
 => Numb.of.points:        85
 => Numb.of.peaks :         1
    2Theta     Yobs     Ycalc  Yobs-Ycal    Backg    Bragg     Posr  Intensity   FWHM    Eta
   44.3632   1013.00   1198.71 -14529.51    486.49   44.9137  -6665.40   15155.18  0.1063  0.9511
   44.3764   1082.00   1221.42 -14483.22    475.89
   44.3895   1086.00   1246.54 -14504.34    465.30
   44.4026   1073.00   1274.29 -14545.09    454.71
   44.4158   1153.00   1304.95 -14495.75    444.12
   44.4289   1095.00   1338.82 -14587.62    433.52
   44.4420   1137.00   1376.23 -14583.03    422.93
   44.4552   1273.00   1417.59 -14488.39    412.34
   44.4683   1287.00   1463.32 -14520.13    401.75
   44.4814   1334.00   1513.95 -14523.75    391.16
   44.4945   1381.00   1570.06 -14532.86    380.56
   44.5077   1490.00   1632.32 -14486.12    369.97
   44.5208   1578.00   1701.52 -14467.32    359.38
   44.5339   1723.00   1778.56 -14399.36    348.79
   44.5471   1837.00   1864.52 -14371.32    338.19
   44.5602   2009.00   1960.64 -14295.44    327.60
   44.5733   2085.00   2068.41 -14327.21    317.01
   44.5865   2337.00   2189.60 -14196.40    306.42
   44.5996   2600.00   2326.35 -14070.15    295.82
   44.6127   2817.00   2481.13 -14007.93    285.23
   44.6258   3121.00   2657.05 -13879.85    274.64
   44.6390   3440.00   2857.87 -13761.67    264.04
   44.6521   3832.00   3088.24 -13600.04    253.45
   44.6652   4221.00   3353.91 -13476.71    242.86
   44.6784   4951.00   3662.10 -13054.90    232.27
   44.6915   5392.00   4021.97 -12973.77    221.67
   44.7046   6066.00   4445.27 -12723.07    211.08
   44.7178   6996.00   4947.29 -12295.08    200.49
   44.7309   7825.00   5548.30 -12067.10    189.90
   44.7440   8874.00   6275.82 -11745.62    179.30
   44.7571  10125.00   7168.09 -11386.89    168.71
   44.7703  11703.00   8279.68 -10920.48    158.12
   44.7834  13431.00   9689.61 -10602.41    147.53
   44.7965  15594.00  11512.47 -10262.27    136.93
   44.8097  18091.00  13911.63 -10164.43    126.34
   44.8228  21134.00  17112.03 -10321.83    115.75
   44.8359  24647.00  21406.63 -11103.43    105.16
   44.8491  28916.00  27142.45 -12570.25     94.56
   44.8622  34188.00  34644.05 -14799.85     83.97
   44.8753  39863.00  43964.55 -18445.36     73.38
   44.8885  47471.00  54289.31 -21162.11     62.79
   44.9016  57647.00  63153.99 -19850.79     52.19
   44.9147  69640.00  66946.77 -11650.57     41.60
   44.9278  77797.00  64043.41   -590.21     31.01
   44.9410  73168.00  56821.03   2003.17     20.42
   44.9541  58904.00  49055.46  -4495.27      9.82
   44.9672  45584.00  43120.97 -11880.77     -0.77
   44.9804  37110.00  39815.50 -17049.30    -11.36
   44.9935  32848.00  39045.76 -20541.56    -21.95
   45.0066  32369.00  40060.99 -22035.79    -32.55
   45.0198  34273.00  41272.21 -21343.01    -43.14
   45.0329  37495.00  40570.62 -17419.42    -53.73
   45.0460  40248.00  36907.09 -11002.89    -64.32
   45.0591  35852.00  31275.06  -9766.86    -74.92
   45.0723  27713.00  25384.60 -12015.40    -85.51
   45.0854  19895.00  20260.70 -14709.50    -96.10
   45.0985  14147.00  16171.56 -16368.36   -106.69
   45.1117  10661.00  13026.77 -16709.57   -117.29
   45.1248   8291.00  10638.25 -16691.05   -127.88
   45.1379   6355.00   8821.51 -16810.31   -138.47
   45.1511   5450.00   7426.44 -16320.24   -149.07
   45.1642   4640.00   6337.65 -16041.45   -159.66
   45.1773   3841.00   5471.90 -15974.70   -170.25
   45.1904   3486.00   4770.52 -15628.32   -180.84
   45.2036   3244.00   4192.57 -15292.38   -191.44
   45.2167   2814.00   3709.34 -15239.14   -202.03
   45.2298   2592.00   3300.27 -15052.07   -212.62
   45.2430   2362.00   2950.31 -14932.11   -223.21
   45.2561   2206.00   2648.13 -14785.93   -233.81
   45.2692   1977.00   2385.06 -14751.86   -244.40
   45.2824   1883.00   2154.31 -14615.11   -254.99
   45.2955   1753.00   1950.55 -14541.35   -265.58
   45.3086   1580.00   1769.47 -14533.27   -276.18
   45.3218   1485.00   1607.63 -14466.43   -286.77
   45.3349   1405.00   1462.21 -14401.01   -297.36
   45.3480   1350.00   1330.88 -14324.68   -307.95
   45.3611   1239.00   1211.73 -14316.53   -318.54
   45.3743   1245.00   1103.15 -14201.95   -329.14
   45.3874   1185.00   1003.80 -14162.60   -339.73
   45.4005   1134.00    912.55 -14122.35   -350.32
   45.4137   1083.00    828.43 -14089.23   -360.91
   45.4268   1094.00    750.62 -14000.42   -371.51
   45.4399   1135.00    678.40 -13887.20   -382.10
   45.4531   1039.00    611.17 -13915.97   -392.69
   45.4662   1018.00    548.41 -13874.21   -403.28
